* Sea-Bird SBE19plus Data File:
* FileName = H:\data\IMOS\Maria Island\CTD data\CTD data\MAI20140703.hex
* Software Version 1.59
* Temperature SN =  6091
* Conductivity SN =  6091
* System UpLoad Time = Jul 28 2014 12:22:59
** MAI20140703
* ds
* SBE 19plus V 2.0c  SERIAL NO. 6091    28 Jul 2014 02:22:09
* vbatt = 13.0, vlith =  8.0, ioper =  62.7 ma, ipump =  65.0 ma,
* iext01 =  38.7 ma, iext2345 =   4.6 ma
* status = not logging
* number of scans to average = 1
* samples = 8828, free = 3454232, casts = 4
* mode = profile, minimum cond freq = 3036, pump delay = 60 sec
* autorun = no, ignore magnetic switch = no
* battery type = alkaline, battery cutoff =  7.5 volts
* pressure sensor = strain gauge, range = 160.0
* SBE 38 = no, Gas Tension Device = no
* Ext Volt 0 = yes, Ext Volt 1 = yes
* Ext Volt 2 = yes, Ext Volt 3 = yes
* Ext Volt 4 = no, Ext Volt 5 = no
* echo characters = yes
* output format = raw HEX

*END*
    147.865        592      1.008    14.0131   4.229881     0.4072  0.3318004   5783.389      0.124  1026.4400     5.7250      1.000    35.3249 0.0000e+00
    193.383        775      2.016    14.0130   4.229757     0.1466  0.4505397   5783.321      0.521  1026.4433     5.7378      2.000    35.3234 0.0000e+00
    195.009        781      3.024    14.0121   4.230354     0.1070  0.2888040   5783.649      0.641  1026.4523     5.7585      3.000    35.3294 0.0000e+00
    196.580        787      4.032    14.0107   4.230412     0.1014  0.1900369   5783.681      0.655  1026.4581     5.7621      4.000    35.3308 0.0000e+00
    198.028        793      5.040    14.0090   4.230318     0.0970  0.1682460   5783.629      0.681  1026.4630     5.7777      5.000    35.3311 0.0000e+00
    199.502        799      6.047    14.0062   4.230136     0.0969  0.1653150   5783.528      0.692  1026.4680     5.7867      6.000    35.3315 0.0000e+00
    200.904        805      7.056    14.0041   4.230025     0.1066  0.1686424   5783.467      0.704  1026.4739     5.7771      7.000    35.3320 0.0000e+00
    202.357        810      8.063    14.0035   4.230067     0.1109  0.1638347   5783.490      0.712  1026.4791     5.7739      8.000    35.3325 0.0000e+00
    204.012        817      9.071    14.0013   4.229857     0.1150  0.1593741   5783.374      0.598  1026.4832     5.7787      9.000    35.3322 0.0000e+00
    205.557        823     10.079    13.9999   4.229885     0.1232  0.1569671   5783.389      0.651  1026.4894     5.7856     10.000    35.3333 0.0000e+00
    207.060        829     11.087    13.9999   4.229963     0.1280  0.1619358   5783.432      0.648  1026.4943     5.7972     11.000    35.3336 0.0000e+00
    208.357        834     12.095    13.9986   4.229789     0.1372  0.1674357   5783.336      0.764  1026.4979     5.7956     12.000    35.3328 0.0000e+00
    209.912        841     13.103    13.9947   4.229330     0.1496  0.1603381   5783.083      0.661  1026.5015     5.7851     13.000    35.3316 0.0000e+00
    211.276        846     14.111    13.9894   4.228798     0.1602  0.1577155   5782.791      0.704  1026.5063     5.7638     14.000    35.3311 0.0000e+00
    212.781        852     15.119    13.9855   4.228335     0.1821  0.1587866   5782.536      0.700  1026.5117     5.7541     15.000    35.3299 0.0000e+00
    214.444        859     16.127    13.9838   4.228258     0.1979  0.1586296   5782.493      0.596  1026.5174     5.7596     16.000    35.3303 0.0000e+00
    215.840        864     17.135    13.9829   4.228202     0.2066  0.1627989   5782.462      0.695  1026.5220     5.7670     17.000    35.3302 0.0000e+00
    217.314        870     18.143    13.9814   4.228034     0.2107  0.1602690   5782.369      0.702  1026.5260     5.7804     18.000    35.3296 0.0000e+00
    218.879        877     19.151    13.9790   4.227789     0.2149  0.1677527   5782.234      0.647  1026.5307     5.7848     19.000    35.3291 0.0000e+00
    220.456        883     20.159    13.9784   4.227761     0.2220  0.1663974   5782.219      0.635  1026.5356     5.7840     20.000    35.3290 0.0000e+00
    222.190        890     21.167    13.9781   4.227764     0.2182  0.1614307   5782.220      0.585  1026.5400     5.7987     21.000    35.3288 0.0000e+00
    223.716        896     22.175    13.9753   4.227528     0.2215  0.1605342   5782.090      0.648  1026.5438     5.7977     22.000    35.3287 0.0000e+00
    225.252        902     23.183    13.9634   4.226376     0.2321  0.1595024   5781.455      0.629  1026.5468     5.7964     23.000    35.3286 0.0000e+00
    226.530        907     24.191    13.9457   4.224601     0.2343  0.1616453   5780.477      0.772  1026.5534     5.8006     24.000    35.3278 0.0000e+00
    228.126        914     25.199    13.9243   4.222582     0.2466  0.1579528   5779.365      0.643  1026.5626     5.8029     25.000    35.3282 0.0000e+00
    229.758        920     26.207    13.9024   4.220587     0.2588  0.1519839   5778.266      0.618  1026.5733     5.8007     26.000    35.3293 0.0000e+00
    231.493        927     27.215    13.8860   4.219163     0.2554  0.1495204   5777.482      0.582  1026.5841     5.8235     27.000    35.3306 0.0000e+00
    233.049        933     28.223    13.8759   4.218279     0.2412  0.1554875   5776.994      0.633  1026.5922     5.8342     28.000    35.3312 0.0000e+00
    234.521        939     29.232    13.8679   4.217581     0.2324  0.1607560   5776.610      0.691  1026.5991     5.8197     29.000    35.3316 0.0000e+00
    235.946        945     30.239    13.8619   4.217066     0.2266  0.1662211   5776.326      0.702  1026.6057     5.8077     30.000    35.3319 0.0000e+00
    237.555        951     31.247    13.8563   4.216610     0.2247  0.1599947   5776.074      0.639  1026.6117     5.7944     31.000    35.3324 0.0000e+00
    239.184        958     32.255    13.8495   4.216029     0.2245  0.1579422   5775.754      0.621  1026.6178     5.7886     32.000    35.3328 0.0000e+00
    240.656        964     33.264    13.8424   4.215441     0.2300  0.1580503   5775.430      0.652  1026.6236     5.7877     33.000    35.3334 0.0000e+00
    242.040        969     34.272    13.8352   4.214829     0.2224  0.1599235   5775.092      0.745  1026.6303     5.7859     34.000    35.3338 0.0000e+00
    243.665        976     35.280    13.8245   4.213919     0.2214  0.1602282   5774.590      0.605  1026.6361     5.7823     35.000    35.3347 0.0000e+00
    245.443        983     36.288    13.8142   4.213036     0.2200  0.1601772   5774.103      0.578  1026.6452     5.8004     36.000    35.3356 0.0000e+00
    246.960        989     37.296    13.8074   4.212481     0.2232  0.1634158   5773.797      0.633  1026.6516     5.8023     37.000    35.3362 0.0000e+00
    248.191        994     38.304    13.8032   4.212172     0.2216  0.1624177   5773.627      0.800  1026.6580     5.8004     38.000    35.3368 0.0000e+00
    249.556        999     39.312    13.8007   4.212011     0.2157  0.1567988   5773.538      0.763  1026.6641     5.8062     39.000    35.3371 0.0000e+00
    250.906       1005     40.320    13.7992   4.211925     0.2101  0.1546210   5773.490      0.743  1026.6691     5.8049     40.000    35.3372 0.0000e+00
    252.547       1011     41.328    13.7980   4.211845     0.2040  0.1575823   5773.446      0.629  1026.6739     5.8083     41.000    35.3372 0.0000e+00
    254.354       1018     42.336    13.7965   4.211744     0.1973  0.1586293   5773.389      0.563  1026.6786     5.7991     42.000    35.3372 0.0000e+00
    256.023       1025     43.345    13.7931   4.211468     0.2039  0.1608501   5773.238      0.575  1026.6832     5.8116     43.000    35.3373 0.0000e+00
    257.382       1031     44.353    13.7904   4.211256     0.2043  0.1595459   5773.120      0.740  1026.6888     5.8178     44.000    35.3374 0.0000e+00
    258.878       1037     45.361    13.7887   4.211138     0.2041  0.1596530   5773.055      0.673  1026.6939     5.8014     45.000    35.3374 0.0000e+00
    260.489       1043     46.369    13.7881   4.211111     0.1972  0.1594952   5773.040      0.639  1026.6989     5.7973     46.000    35.3373 0.0000e+00
    261.997       1049     47.377    13.7880   4.211147     0.1967  0.1554626   5773.059      0.655  1026.7034     5.8064     47.000    35.3373 0.0000e+00
    263.704       1056     48.385    13.7880   4.211188     0.2016  0.1579371   5773.081      0.606  1026.7078     5.8052     48.000    35.3372 0.0000e+00
    265.145       1062     49.393    13.7873   4.211158     0.2009  0.1620388   5773.065      0.660  1026.7122     5.8033     49.000    35.3372 0.0000e+00
    266.554       1067     50.401    13.7862   4.211100     0.1980  0.1624916   5773.033      0.728  1026.7168     5.8202     50.000    35.3372 0.0000e+00
    268.027       1073     51.409    13.7855   4.211080     0.1928  0.1623154   5773.021      0.668  1026.7216     5.8298     51.000    35.3372 0.0000e+00
    269.538       1079     52.418    13.7853   4.211105     0.1900  0.1591208   5773.035      0.685  1026.7263     5.8044     52.000    35.3372 0.0000e+00
    271.353       1086     53.426    13.7843   4.211044     0.1870  0.1553240   5773.001      0.561  1026.7307     5.7953     53.000    35.3372 0.0000e+00
    273.160       1094     54.434    13.7820   4.210880     0.1858  0.1573142   5772.911      0.550  1026.7352     5.7999     54.000    35.3374 0.0000e+00
    274.475       1099     55.442    13.7772   4.210453     0.1764  0.1578885   5772.675      0.709  1026.7396     5.7908     55.000    35.3374 0.0000e+00
    275.833       1104     56.450    13.7714   4.209928     0.1665  0.1581341   5772.385      0.766  1026.7455     5.7910     56.000    35.3373 0.0000e+00
    277.501       1111     57.458    13.7661   4.209449     0.1569  0.1572833   5772.121      0.614  1026.7513     5.7967     57.000    35.3373 0.0000e+00
    279.479       1119     58.467    13.7605   4.208907     0.1458  0.1551977   5771.822      0.508  1026.7572     5.7925     58.000    35.3370 0.0000e+00
    281.162       1126     59.475    13.7537   4.208283     0.1406  0.1549678   5771.478      0.565  1026.7614     5.7860     59.000    35.3369 0.0000e+00
    282.374       1130     60.483    13.7445   4.207402     0.1398  0.1556414   5770.991      0.814  1026.7665     5.7923     60.000    35.3367 0.0000e+00
    283.767       1136     61.491    13.7293   4.205923     0.1412  0.1560940   5770.175      0.753  1026.7724     5.8012     61.000    35.3365 0.0000e+00
    285.969       1145     62.500    13.7101   4.204084     0.1385  0.1665054   5769.160      0.453  1026.7828     5.8296     62.000    35.3365 0.0000e+00
    288.152       1154     63.508    13.6800   4.201243     0.1273  0.1681093   5767.592      0.474  1026.7875     5.8253     63.000    35.3371 0.0000e+00
    289.531       1159     64.516    13.6328   4.196598     0.1257  0.1675297   5765.028      0.691  1026.7934     5.8198     64.000    35.3366 0.0000e+00
    290.676       1164     65.524    13.5854   4.191949     0.1227  0.1732938   5762.460      0.837  1026.8066     5.8054     65.000    35.3362 0.0000e+00
    291.844       1168     66.533    13.5383   4.187336     0.1199  0.1831120   5759.911      0.879  1026.8218     5.7953     66.000    35.3359 0.0000e+00
    293.421       1175     67.541    13.4989   4.183536     0.1178  0.1860156   5757.811      0.681  1026.8441     5.8048     67.000    35.3361 0.0000e+00
    295.627       1184     68.549    13.4727   4.181076     0.1160  0.1962931   5756.450      0.439  1026.8583     5.8033     68.000    35.3367 0.0000e+00
    297.665       1192     69.557    13.4563   4.179526     0.1172  0.2066728   5755.593      0.495  1026.8683     5.8368     69.000    35.3369 0.0000e+00
    299.422       1199     70.565    13.4498   4.178937     0.1229  0.2051149   5755.267      0.574  1026.8757     5.8477     70.000    35.3369 0.0000e+00
    300.878       1205     71.574    13.4460   4.178611     0.1259  0.2040708   5755.086      0.671  1026.8809     5.8152     71.000    35.3368 0.0000e+00
    302.600       1211     72.582    13.4407   4.178154     0.1232  0.2093767   5754.833      0.594  1026.8858     5.7970     72.000    35.3370 0.0000e+00
    304.090       1217     73.590    13.4322   4.177362     0.1284  0.2164159   5754.395      0.671  1026.8917     5.7960     73.000    35.3369 0.0000e+00
    305.851       1224     74.599    13.4267   4.176870     0.1311  0.2121349   5754.123      0.572  1026.8987     5.8179     74.000    35.3370 0.0000e+00
    307.727       1232     75.607    13.4244   4.176694     0.1291  0.2095314   5754.025      0.537  1026.9041     5.8193     75.000    35.3371 0.0000e+00
    310.660       1244     76.615    13.4214   4.176391     0.1264  0.2068695   5753.857      0.311  1026.9092     5.8400     76.000    35.3367 0.0000e+00
